Theta [deg.]  Phi   [deg.]  Abs(Dir.)[      ]   Abs(Theta)[      ]  Phase(Theta)[deg.]  Abs(Phi  )[      ]  Phase(Phi  )[deg.]  Ax.Ratio[      ]    
------------------------------------------------------------------------------------------------------------------------------------------------------
   0.000           0.000            8.360e+01           5.859e-22             143.930           8.360e+01              90.604           3.162e+02     
   1.000           0.000            8.302e+01           9.270e-14              51.549           8.302e+01              90.506           3.162e+02     
   2.000           0.000            8.128e+01           3.611e-13              50.845           8.128e+01              90.213           3.162e+02     
   3.000           0.000            7.847e+01           7.773e-13              49.662           7.847e+01              89.728           3.162e+02     
   4.000           0.000            7.468e+01           1.298e-12              47.989           7.468e+01              89.058           3.162e+02     
   5.000           0.000            7.008e+01           1.870e-12              45.805           7.008e+01              88.210           3.162e+02     
   6.000           0.000            6.484e+01           2.436e-12              43.084           6.484e+01              87.197           3.162e+02     
   7.000           0.000            5.913e+01           2.941e-12              39.788           5.913e+01              86.033           3.162e+02     
   8.000           0.000            5.316e+01           3.338e-12              35.866           5.316e+01              84.735           3.162e+02     
   9.000           0.000            4.712e+01           3.595e-12              31.248           4.712e+01              83.325           3.162e+02     
  10.000           0.000            4.117e+01           3.697e-12              25.843           4.117e+01              81.831           3.162e+02     
  11.000           0.000            3.547e+01           3.649e-12              19.530           3.547e+01              80.282           3.162e+02     
  12.000           0.000            3.014e+01           3.473e-12              12.156           3.014e+01              78.716           3.162e+02     
  13.000           0.000            2.528e+01           3.209e-12               3.538           2.528e+01              77.175           3.162e+02     
  14.000           0.000            2.094e+01           2.902e-12             353.477           2.094e+01              75.705           3.162e+02     
  15.000           0.000            1.716e+01           2.602e-12             341.809           1.716e+01              74.358           3.162e+02     
  16.000           0.000            1.393e+01           2.354e-12             328.500           1.393e+01              73.187           3.162e+02     
  17.000           0.000            1.123e+01           2.192e-12             313.757           1.123e+01              72.239           3.162e+02     
  18.000           0.000            9.032e+00           2.132e-12             298.091           9.032e+00              71.550           3.162e+02     
  19.000           0.000            7.270e+00           2.175e-12             282.193           7.270e+00              71.133           3.162e+02     
  20.000           0.000            5.887e+00           2.306e-12             266.668           5.887e+00              70.961           3.162e+02     
  21.000           0.000            4.818e+00           2.498e-12             251.834           4.818e+00              70.959           3.162e+02     
  22.000           0.000            4.003e+00           2.722e-12             237.718           4.003e+00              70.999           3.162e+02     
  23.000           0.000            3.384e+00           2.951e-12             224.174           3.384e+00              70.912           3.162e+02     
  24.000           0.000            2.910e+00           3.168e-12             211.001           2.910e+00              70.510           3.162e+02     
  25.000           0.000            2.541e+00           3.364e-12             198.037           2.541e+00              69.625           3.162e+02     
  26.000           0.000            2.242e+00           3.541e-12             185.193           2.242e+00              68.131           3.162e+02     
  27.000           0.000            1.991e+00           3.704e-12             172.467           1.991e+00              65.960           3.162e+02     
  28.000           0.000            1.769e+00           3.856e-12             159.934           1.769e+00              63.100           3.162e+02     
  29.000           0.000            1.565e+00           3.992e-12             147.708           1.565e+00              59.581           3.162e+02     
  30.000           0.000            1.375e+00           4.097e-12             135.896           1.375e+00              55.469           3.162e+02     
  31.000           0.000            1.195e+00           4.146e-12             124.570           1.195e+00              50.853           3.162e+02     
  32.000           0.000            1.025e+00           4.112e-12             113.735           1.025e+00              45.822           3.162e+02     
  33.000           0.000            8.671e-01           3.973e-12             103.342           8.671e-01              40.489           3.162e+02     
  34.000           0.000            7.225e-01           3.721e-12              93.294           7.225e-01              34.967           3.162e+02     
  35.000           0.000            5.931e-01           3.365e-12              83.455           5.931e-01              29.376           3.162e+02     
  36.000           0.000            4.800e-01           2.933e-12              73.668           4.800e-01              23.842           3.162e+02     
  37.000           0.000            3.840e-01           2.464e-12              63.769           3.840e-01              18.494           3.162e+02     
  38.000           0.000            3.047e-01           2.000e-12              53.598           3.047e-01              13.457           3.162e+02     
  39.000           0.000            2.413e-01           1.577e-12              43.037           2.413e-01               8.833           3.162e+02     
  40.000           0.000            1.924e-01           1.219e-12              32.055           1.924e-01               4.672           3.162e+02     
  41.000           0.000            1.558e-01           9.332e-13              20.771           1.558e-01               0.947           3.162e+02     
  42.000           0.000            1.296e-01           7.160e-13               9.509           1.296e-01             357.487           3.162e+02     
  43.000           0.000            1.116e-01           5.547e-13             358.780           1.116e-01             353.995           3.162e+02     
  44.000           0.000            9.983e-02           4.348e-13             349.181           9.983e-02             350.097           3.162e+02     
  45.000           0.000            9.237e-02           3.443e-13             341.237           9.237e-02             345.440           3.162e+02     
  46.000           0.000            8.775e-02           2.751e-13             335.262           8.775e-02             339.783           3.162e+02     
  47.000           0.000            8.476e-02           2.230e-13             331.254           8.476e-02             333.024           3.162e+02     
  48.000           0.000            8.248e-02           1.854e-13             328.793           8.248e-02             325.182           3.162e+02     
  49.000           0.000            8.025e-02           1.597e-13             327.021           8.025e-02             316.349           3.162e+02     
  50.000           0.000            7.759e-02           1.428e-13             324.794           7.759e-02             306.625           3.162e+02     
  51.000           0.000            7.428e-02           1.312e-13             321.032           7.428e-02             296.176           3.162e+02     
  52.000           0.000            7.019e-02           1.225e-13             314.966           7.019e-02             285.074           3.162e+02     
  53.000           0.000            6.534e-02           1.156e-13             306.248           6.534e-02             273.398           3.162e+02     
  54.000           0.000            5.990e-02           1.109e-13             294.951           5.990e-02             261.210           3.162e+02     
  55.000           0.000            5.407e-02           1.095e-13             281.598           5.407e-02             248.555           3.162e+02     
  56.000           0.000            4.812e-02           1.123e-13             267.098           4.812e-02             235.481           3.162e+02     
  57.000           0.000            4.228e-02           1.186e-13             252.439           4.228e-02             222.044           3.162e+02     
  58.000           0.000            3.673e-02           1.267e-13             238.316           3.673e-02             208.320           3.162e+02     
  59.000           0.000            3.159e-02           1.336e-13             224.988           3.159e-02             194.397           3.162e+02     
  60.000           0.000            2.690e-02           1.365e-13             212.373           2.690e-02             180.377           3.162e+02     
  61.000           0.000            2.267e-02           1.335e-13             200.215           2.267e-02             166.352           3.162e+02     
  62.000           0.000            1.888e-02           1.240e-13             188.183           1.888e-02             152.393           3.162e+02     
  63.000           0.000            1.552e-02           1.094e-13             175.917           1.552e-02             138.539           3.162e+02     
  64.000           0.000            1.258e-02           9.183e-14             163.022           1.258e-02             124.785           3.162e+02     
  65.000           0.000            1.008e-02           7.392e-14             149.059           1.008e-02             111.147           3.162e+02     
  66.000           0.000            7.994e-03           5.803e-14             133.619           7.994e-03              97.589           3.162e+02     
  67.000           0.000            6.316e-03           4.571e-14             116.478           6.316e-03              84.118           3.162e+02     
  68.000           0.000            5.005e-03           3.746e-14              97.915           5.005e-03              70.769           3.162e+02     
  69.000           0.000            4.010e-03           3.285e-14              78.919           4.010e-03              57.618           3.162e+02     
  70.000           0.000            3.274e-03           3.082e-14              60.818           3.274e-03              44.747           3.162e+02     
  71.000           0.000            2.739e-03           3.011e-14              44.531           2.739e-03              32.200           3.162e+02     
  72.000           0.000            2.358e-03           2.957e-14              30.217           2.358e-03              19.939           3.162e+02     
  73.000           0.000            2.093e-03           2.849e-14              17.497           2.093e-03               7.824           3.162e+02     
  74.000           0.000            1.915e-03           2.659e-14               5.759           1.915e-03             355.645           3.162e+02     
  75.000           0.000            1.803e-03           2.399e-14             354.334           1.803e-03             343.187           3.162e+02     
  76.000           0.000            1.743e-03           2.106e-14             342.581           1.743e-03             330.303           3.162e+02     
  77.000           0.000            1.720e-03           1.823e-14             329.950           1.720e-03             316.951           3.162e+02     
  78.000           0.000            1.719e-03           1.584e-14             316.101           1.719e-03             303.172           3.162e+02     
  79.000           0.000            1.725e-03           1.408e-14             301.024           1.725e-03             289.033           3.162e+02     
  80.000           0.000            1.717e-03           1.293e-14             285.025           1.717e-03             274.545           3.162e+02     
  81.000           0.000            1.677e-03           1.220e-14             268.457           1.677e-03             259.611           3.162e+02     
  82.000           0.000            1.596e-03           1.166e-14             251.361           1.596e-03             244.003           3.162e+02     
  83.000           0.000            1.477e-03           1.115e-14             233.316           1.477e-03             227.380           3.162e+02     
  84.000           0.000            1.341e-03           1.078e-14             213.661           1.341e-03             209.369           3.162e+02     
  85.000           0.000            1.217e-03           1.090e-14             192.126           1.217e-03             189.731           3.162e+02     
  86.000           0.000            1.132e-03           1.206e-14             169.624           1.132e-03             168.635           3.162e+02     
  87.000           0.000            1.102e-03           1.466e-14             148.100           1.102e-03             146.819           3.162e+02     
  88.000           0.000            1.123e-03           1.865e-14             129.030           1.123e-03             125.320           3.162e+02     
  89.000           0.000            1.165e-03           2.332e-14             112.563           1.165e-03             104.883           3.162e+02     
  90.000           0.000            1.192e-03           2.739e-14              97.985           1.192e-03              85.623           3.162e+02     
  91.000           0.000            1.170e-03           2.945e-14              84.303           1.170e-03              67.132           3.162e+02     
  92.000           0.000            1.083e-03           2.858e-14              70.425           1.083e-03              48.691           3.162e+02     
  93.000           0.000            9.411e-04           2.491e-14              55.030           9.411e-04              29.389           3.162e+02     
  94.000           0.000            7.760e-04           1.975e-14              36.298           7.760e-04               8.153           3.162e+02     
  95.000           0.000            6.299e-04           1.525e-14              11.971           6.299e-04             343.912           3.162e+02     
  96.000           0.000            5.406e-04           1.355e-14             341.597           5.406e-04             316.315           3.162e+02     
  97.000           0.000            5.305e-04           1.592e-14             310.437           5.305e-04             286.908           3.162e+02     
  98.000           0.000            6.010e-04           2.221e-14             284.449           6.010e-04             258.713           3.162e+02     
  99.000           0.000            7.343e-04           3.085e-14             263.847           7.343e-04             233.684           3.162e+02     
 100.000           0.000            8.990e-04           3.949e-14             246.465           8.990e-04             211.855           3.162e+02     
 101.000           0.000            1.057e-03           4.586e-14             230.502           1.057e-03             192.449           3.162e+02     
 102.000           0.000            1.172e-03           4.847e-14             214.755           1.172e-03             174.666           3.162e+02     
 103.000           0.000            1.210e-03           4.700e-14             198.345           1.210e-03             157.867           3.162e+02     
 104.000           0.000            1.155e-03           4.216e-14             180.444           1.155e-03             141.486           3.162e+02     
 105.000           0.000            1.006e-03           3.547e-14             160.030           1.006e-03             124.871           3.162e+02     
 106.000           0.000            7.896e-04           2.901e-14             135.727           7.896e-04             107.036           3.162e+02     
 107.000           0.000            5.527e-04           2.534e-14             106.479           5.527e-04              86.198           3.162e+02     
 108.000           0.000            3.573e-04           2.720e-14              74.147           3.573e-04              59.070           3.162e+02     
 109.000           0.000            2.623e-04           3.692e-14              44.141           2.623e-04              22.209           3.162e+02     
 110.000           0.000            3.050e-04           5.536e-14              19.755           3.050e-04             341.946           3.162e+02     
 111.000           0.000            4.864e-04           8.088e-14               0.363           4.864e-04             310.481           3.162e+02     
 112.000           0.000            7.682e-04           1.088e-13             344.263           7.682e-04             287.845           3.162e+02     
 113.000           0.000            1.083e-03           1.325e-13             330.036           1.083e-03             270.017           3.162e+02     
 114.000           0.000            1.357e-03           1.451e-13             316.597           1.357e-03             254.444           3.162e+02     
 115.000           0.000            1.529e-03           1.427e-13             302.975           1.529e-03             239.701           3.162e+02     
 116.000           0.000            1.574e-03           1.263e-13             288.076           1.574e-03             224.861           3.162e+02     
 117.000           0.000            1.507e-03           1.022e-13             270.466           1.507e-03             209.190           3.162e+02     
 118.000           0.000            1.368e-03           7.973e-14             248.422           1.368e-03             192.097           3.162e+02     
 119.000           0.000            1.217e-03           6.795e-14             221.364           1.217e-03             173.146           3.162e+02     
 120.000           0.000            1.104e-03           7.184e-14             192.720           1.104e-03             152.387           3.162e+02     
 121.000           0.000            1.059e-03           9.040e-14             167.796           1.059e-03             130.614           3.162e+02     
 122.000           0.000            1.085e-03           1.170e-13             148.137           1.085e-03             109.163           3.162e+02     
 123.000           0.000            1.164e-03           1.420e-13             132.491           1.164e-03              89.156           3.162e+02     
 124.000           0.000            1.262e-03           1.563e-13             119.443           1.262e-03              71.026           3.162e+02     
 125.000           0.000            1.346e-03           1.537e-13             108.120           1.346e-03              54.661           3.162e+02     
 126.000           0.000            1.387e-03           1.331e-13              98.154           1.387e-03              39.762           3.162e+02     
 127.000           0.000            1.366e-03           9.842e-14              89.655           1.366e-03              26.059           3.162e+02     
 128.000           0.000            1.276e-03           5.759e-14              83.550           1.276e-03              13.405           3.162e+02     
 129.000           0.000            1.118e-03           2.185e-14              83.947           1.118e-03               1.801           3.162e+02     
